File: data/exports/GaAs_30kV_25pA.emsa
#FORMAT      : EMSA/MAS Spectral Data File
#VERSION     : 1.0
#TITLE       : GaAs_30kV_25pA
#DATE        : 08-MAR-2023
#TIME        : 14:13
#OWNER       :
#NPOINTS     : 2048.0
#NCOLUMNS    : 1.0
#XUNITS      : keV
#YUNITS      : counts
#DATATYPE    : XY
#XPERCHAN    : 0.01
#OFFSET      : -0.2
#SIGNALTYPE  : EDS
#CHOFFSET    : 20.0
#LIVETIME    : 120.0
#REALTIME    : 159.168
#BEAMKV      : 30.0
#MAGCAM      : 9788.0
#XTILTSTGE   : 0.0
#AZIMANGLE   : 0.0
#ELEVANGLE   : 35.0
#XPOSITION mm: -8.2468
#YPOSITION mm: -4.3752
#ZPOSITION mm: 10.0002
##OXINSTPT   : 6
##OXINSTSTROB: 31.49
##OXINSTNDET : 1
##OXINSTELEMS: 25,26,27,28,29,13,6,8
##OXINSTLABEL: 25, 5.899, Mn
##OXINSTLABEL: 25, 6.490, Mn
##OXINSTLABEL: 25, 0.636, Mn
##OXINSTLABEL: 25, 0.556, Mn
##OXINSTLABEL: 26, 6.404, Fe
##OXINSTLABEL: 26, 7.058, Fe
##OXINSTLABEL: 26, 0.703, Fe
##OXINSTLABEL: 26, 0.615, Fe
##OXINSTLABEL: 27, 6.930, Co
##OXINSTLABEL: 27, 7.650, Co
##OXINSTLABEL: 27, 0.776, Co
##OXINSTLABEL: 27, 0.694, Co
##OXINSTLABEL: 27, 0.678, Co
##OXINSTLABEL: 28, 7.478, Ni
##OXINSTLABEL: 28, 8.265, Ni
##OXINSTLABEL: 28, 0.851, Ni
##OXINSTLABEL: 28, 0.762, Ni
##OXINSTLABEL: 28, 0.743, Ni
##OXINSTLABEL: 29, 8.048, Cu
##OXINSTLABEL: 29, 8.905, Cu
##OXINSTLABEL: 29, 0.930, Cu
##OXINSTLABEL: 29, 0.832, Cu
##OXINSTLABEL: 29, 0.811, Cu
##OXINSTLABEL: 13, 1.487, Al
##OXINSTLABEL: 6, 0.277, C
##OXINSTLABEL: 8, 0.525, O
#SPECTRUM    : Spectral Data Starts Here
-0.20000, 0.0
-0.13000, 0.0
-0.06000, 13.0
0.01000, 10776.0
0.08000, 68.0
0.15000, 78.0
0.22000, 118.0
0.29000, 443.0
0.36000, 90.0
0.43000, 123.0
0.50000, 197.0
0.57000, 216.0
0.64000, 283.0
0.71000, 347.0
0.78000, 470.0
0.85000, 603.0
0.92000, 1046.0
0.99000, 1798.0
1.06000, 7752.0
1.13000, 18070.0
1.20000, 856.0
1.27000, 7733.0
1.34000, 4001.0
1.41000, 308.0
1.48000, 185.0
1.55000, 170.0
1.62000, 196.0
1.69000, 216.0
1.76000, 279.0
1.83000, 245.0
1.90000, 226.0
1.97000, 236.0
2.04000, 253.0
2.11000, 299.0
2.18000, 292.0
2.25000, 287.0
2.32000, 286.0
2.39000, 317.0
2.46000, 331.0
2.53000, 345.0
2.60000, 338.0
2.67000, 372.0
2.74000, 347.0
2.81000, 353.0
2.88000, 363.0
2.95000, 382.0
3.02000, 398.0
3.09000, 373.0
3.16000, 384.0
3.23000, 411.0
3.30000, 390.0
3.37000, 397.0
3.44000, 394.0
3.51000, 394.0
3.58000, 403.0
3.65000, 422.0
3.72000, 392.0
3.79000, 384.0
3.86000, 415.0
3.93000, 425.0
4.00000, 396.0
4.07000, 397.0
4.14000, 389.0
4.21000, 384.0
4.28000, 375.0
4.35000, 409.0
4.42000, 381.0
4.49000, 386.0
4.56000, 359.0
4.63000, 373.0
4.70000, 391.0
4.77000, 383.0
4.84000, 375.0
4.91000, 343.0
4.98000, 364.0
5.05000, 365.0
5.12000, 349.0
5.19000, 343.0
5.26000, 353.0
5.33000, 359.0
5.40000, 365.0
5.47000, 324.0
5.54000, 331.0
5.61000, 334.0
5.68000, 311.0
5.75000, 316.0
5.82000, 339.0
5.89000, 317.0
5.96000, 328.0
6.03000, 294.0
6.10000, 293.0
6.17000, 319.0
6.24000, 298.0
6.31000, 297.0
6.38000, 271.0
6.45000, 276.0
6.52000, 293.0
6.59000, 286.0
6.66000, 276.0
6.73000, 274.0
6.80000, 270.0
6.87000, 264.0
6.94000, 269.0
7.01000, 255.0
7.08000, 249.0
7.15000, 252.0
7.22000, 243.0
7.29000, 224.0
7.36000, 224.0
7.43000, 261.0
7.50000, 270.0
7.57000, 269.0
7.64000, 244.0
7.71000, 229.0
7.78000, 226.0
7.85000, 228.0
7.92000, 229.0
7.99000, 229.0
8.06000, 243.0
8.13000, 226.0
8.20000, 197.0
8.27000, 231.0
8.34000, 223.0
8.41000, 213.0
8.48000, 225.0
8.55000, 207.0
8.62000, 216.0
8.69000, 219.0
8.76000, 207.0
8.83000, 212.0
8.90000, 211.0
8.97000, 206.0
9.04000, 325.0
9.11000, 1504.0
9.18000, 5921.0
9.25000, 8573.0
9.32000, 4168.0
9.39000, 820.0
9.46000, 231.0
9.53000, 196.0
9.60000, 177.0
9.67000, 188.0
9.74000, 182.0
9.81000, 189.0
9.88000, 194.0
9.95000, 188.0
10.02000, 195.0
10.09000, 248.0
10.16000, 643.0
10.23000, 1232.0
10.30000, 1197.0
10.37000, 946.0
10.44000, 2528.0
10.51000, 4750.0
10.58000, 3643.0
10.65000, 1131.0
10.72000, 261.0
10.79000, 140.0
10.86000, 125.0
10.93000, 130.0
11.00000, 129.0
11.07000, 133.0
11.14000, 121.0
11.21000, 134.0
11.28000, 123.0
11.35000, 143.0
11.42000, 139.0
11.49000, 151.0
11.56000, 218.0
11.63000, 472.0
11.70000, 763.0
11.77000, 603.0
11.84000, 277.0
11.91000, 148.0
11.98000, 105.0
12.05000, 109.0
12.12000, 99.0
12.19000, 105.0
12.26000, 90.0
12.33000, 92.0
12.40000, 92.0
12.47000, 93.0
12.54000, 96.0
12.61000, 82.0
12.68000, 93.0
12.75000, 100.0
12.82000, 88.0
12.89000, 79.0
12.96000, 84.0
13.03000, 81.0
13.10000, 82.0
13.17000, 85.0
13.24000, 72.0
13.31000, 85.0
13.38000, 77.0
13.45000, 80.0
13.52000, 74.0
13.59000, 71.0
13.66000, 71.0
13.73000, 67.0
13.80000, 70.0
13.87000, 67.0
13.94000, 64.0
14.01000, 63.0
14.08000, 70.0
14.15000, 65.0
14.22000, 66.0
14.29000, 69.0
14.36000, 66.0
14.43000, 66.0
14.50000, 64.0
14.57000, 62.0
14.64000, 61.0
14.71000, 63.0
14.78000, 67.0
14.85000, 58.0
14.92000, 56.0
14.99000, 56.0
15.06000, 56.0
15.13000, 56.0
15.20000, 52.0
15.27000, 53.0
15.34000, 49.0
15.41000, 57.0
15.48000, 47.0
15.55000, 53.0
15.62000, 42.0
15.69000, 52.0
15.76000, 53.0
15.83000, 51.0
15.90000, 44.0
15.97000, 41.0
16.04000, 50.0
16.11000, 40.0
16.18000, 46.0
16.25000, 37.0
16.32000, 37.0
16.39000, 48.0
16.46000, 45.0
16.53000, 45.0
16.60000, 46.0
16.67000, 40.0
16.74000, 44.0
16.81000, 44.0
16.88000, 38.0
16.95000, 41.0
17.02000, 38.0
17.09000, 36.0
17.16000, 42.0
17.23000, 38.0
17.30000, 31.0
17.37000, 33.0
17.44000, 29.0
17.51000, 35.0
17.58000, 36.0
17.65000, 34.0
17.72000, 28.0
17.79000, 34.0
17.86000, 33.0
17.93000, 26.0
18.00000, 31.0
18.07000, 27.0
18.14000, 26.0
18.21000, 21.0
18.28000, 20.0
18.35000, 31.0
18.42000, 24.0
18.49000, 32.0
18.56000, 27.0
18.63000, 29.0
18.70000, 22.0
18.77000, 19.0
18.84000, 24.0
18.91000, 23.0
18.98000, 23.0
19.05000, 22.0
19.12000, 16.0
19.19000, 24.0
19.26000, 21.0
19.33000, 22.0
19.40000, 19.0
19.47000, 17.0
19.54000, 21.0
19.61000, 21.0
19.68000, 21.0
19.75000, 21.0
19.82000, 22.0
19.89000, 18.0
19.96000, 14.0
20.03000, 16.0
20.10000, 17.0
20.17000, 15.0
20.24000, 19.0
20.27000, 21.0
#ENDOFDATA   :