File: data/exports/GaAs_30kV_50pA.emsa
#FORMAT      : EMSA/MAS Spectral Data File
#VERSION     : 1.0
#TITLE       : GaAs_30kV_50pA
#DATE        : 08-MAR-2023
#TIME        : 14:28
#OWNER       :
#NPOINTS     : 2048.0
#NCOLUMNS    : 1.0
#XUNITS      : keV
#YUNITS      : counts
#DATATYPE    : XY
#XPERCHAN    : 0.01
#OFFSET      : -0.2
#SIGNALTYPE  : EDS
#CHOFFSET    : 20.0
#LIVETIME    : 120.0
#REALTIME    : 213.231
#BEAMKV      : 30.0
#MAGCAM      : 9788.0
#XTILTSTGE   : 0.0
#AZIMANGLE   : 0.0
#ELEVANGLE   : 35.0
#XPOSITION mm: -8.2468
#YPOSITION mm: -4.3752
#ZPOSITION mm: 10.0002
##OXINSTPT   : 6
##OXINSTSTROB: 32.23
##OXINSTNDET : 1
##OXINSTELEMS: 25,26,27,28,29,13,6,8
##OXINSTLABEL: 25, 5.899, Mn
##OXINSTLABEL: 25, 6.490, Mn
##OXINSTLABEL: 25, 0.636, Mn
##OXINSTLABEL: 25, 0.556, Mn
##OXINSTLABEL: 26, 6.404, Fe
##OXINSTLABEL: 26, 7.058, Fe
##OXINSTLABEL: 26, 0.703, Fe
##OXINSTLABEL: 26, 0.615, Fe
##OXINSTLABEL: 27, 6.930, Co
##OXINSTLABEL: 27, 7.650, Co
##OXINSTLABEL: 27, 0.776, Co
##OXINSTLABEL: 27, 0.694, Co
##OXINSTLABEL: 27, 0.678, Co
##OXINSTLABEL: 28, 7.478, Ni
##OXINSTLABEL: 28, 8.265, Ni
##OXINSTLABEL: 28, 0.851, Ni
##OXINSTLABEL: 28, 0.762, Ni
##OXINSTLABEL: 28, 0.743, Ni
##OXINSTLABEL: 29, 8.048, Cu
##OXINSTLABEL: 29, 8.905, Cu
##OXINSTLABEL: 29, 0.930, Cu
##OXINSTLABEL: 29, 0.832, Cu
##OXINSTLABEL: 29, 0.811, Cu
##OXINSTLABEL: 13, 1.487, Al
##OXINSTLABEL: 6, 0.277, C
##OXINSTLABEL: 8, 0.525, O
#SPECTRUM    : Spectral Data Starts Here
-0.20000, 0.0
-0.13000, 0.0
-0.06000, 40.0
0.01000, 10201.0
0.08000, 165.0
0.15000, 178.0
0.22000, 259.0
0.29000, 713.0
0.36000, 193.0
0.43000, 266.0
0.50000, 424.0
0.57000, 433.0
0.64000, 615.0
0.71000, 739.0
0.78000, 974.0
0.85000, 1213.0
0.92000, 2260.0
0.99000, 3854.0
1.06000, 16733.0
1.13000, 38891.0
1.20000, 1802.0
1.27000, 16423.0
1.34000, 8533.0
1.41000, 648.0
1.48000, 373.0
1.55000, 380.0
1.62000, 432.0
1.69000, 442.0
1.76000, 599.0
1.83000, 512.0
1.90000, 526.0
1.97000, 512.0
2.04000, 530.0
2.11000, 603.0
2.18000, 619.0
2.25000, 692.0
2.32000, 672.0
2.39000, 737.0
2.46000, 725.0
2.53000, 704.0
2.60000, 740.0
2.67000, 746.0
2.74000, 714.0
2.81000, 785.0
2.88000, 771.0
2.95000, 790.0
3.02000, 842.0
3.09000, 826.0
3.16000, 847.0
3.23000, 861.0
3.30000, 858.0
3.37000, 855.0
3.44000, 860.0
3.51000, 827.0
3.58000, 900.0
3.65000, 864.0
3.72000, 877.0
3.79000, 893.0
3.86000, 886.0
3.93000, 888.0
4.00000, 845.0
4.07000, 874.0
4.14000, 843.0
4.21000, 823.0
4.28000, 841.0
4.35000, 820.0
4.42000, 811.0
4.49000, 820.0
4.56000, 818.0
4.63000, 804.0
4.70000, 832.0
4.77000, 788.0
4.84000, 802.0
4.91000, 813.0
4.98000, 807.0
5.05000, 756.0
5.12000, 753.0
5.19000, 736.0
5.26000, 773.0
5.33000, 742.0
5.40000, 744.0
5.47000, 716.0
5.54000, 708.0
5.61000, 667.0
5.68000, 677.0
5.75000, 674.0
5.82000, 660.0
5.89000, 685.0
5.96000, 654.0
6.03000, 635.0
6.10000, 647.0
6.17000, 661.0
6.24000, 643.0
6.31000, 632.0
6.38000, 634.0
6.45000, 629.0
6.52000, 610.0
6.59000, 603.0
6.66000, 586.0
6.73000, 566.0
6.80000, 603.0
6.87000, 588.0
6.94000, 582.0
7.01000, 592.0
7.08000, 585.0
7.15000, 558.0
7.22000, 545.0
7.29000, 544.0
7.36000, 543.0
7.43000, 583.0
7.50000, 593.0
7.57000, 514.0
7.64000, 520.0
7.71000, 512.0
7.78000, 502.0
7.85000, 505.0
7.92000, 536.0
7.99000, 495.0
8.06000, 488.0
8.13000, 489.0
8.20000, 454.0
8.27000, 481.0
8.34000, 452.0
8.41000, 457.0
8.48000, 466.0
8.55000, 462.0
8.62000, 466.0
8.69000, 477.0
8.76000, 486.0
8.83000, 462.0
8.90000, 442.0
8.97000, 462.0
9.04000, 725.0
9.11000, 3163.0
9.18000, 12757.0
9.25000, 18267.0
9.32000, 8916.0
9.39000, 1795.0
9.46000, 494.0
9.53000, 429.0
9.60000, 385.0
9.67000, 374.0
9.74000, 409.0
9.81000, 372.0
9.88000, 390.0
9.95000, 396.0
10.02000, 433.0
10.09000, 542.0
10.16000, 1300.0
10.23000, 2659.0
10.30000, 2642.0
10.37000, 2009.0
10.44000, 5502.0
10.51000, 10336.0
10.58000, 7837.0
10.65000, 2480.0
10.72000, 560.0
10.79000, 315.0
10.86000, 299.0
10.93000, 284.0
11.00000, 292.0
11.07000, 276.0
11.14000, 292.0
11.21000, 281.0
11.28000, 282.0
11.35000, 293.0
11.42000, 259.0
11.49000, 311.0
11.56000, 475.0
11.63000, 1025.0
11.70000, 1650.0
11.77000, 1353.0
11.84000, 651.0
11.91000, 331.0
11.98000, 229.0
12.05000, 226.0
12.12000, 224.0
12.19000, 221.0
12.26000, 199.0
12.33000, 216.0
12.40000, 193.0
12.47000, 214.0
12.54000, 183.0
12.61000, 195.0
12.68000, 198.0
12.75000, 191.0
12.82000, 209.0
12.89000, 201.0
12.96000, 196.0
13.03000, 183.0
13.10000, 175.0
13.17000, 186.0
13.24000, 175.0
13.31000, 165.0
13.38000, 169.0
13.45000, 161.0
13.52000, 163.0
13.59000, 167.0
13.66000, 156.0
13.73000, 168.0
13.80000, 160.0
13.87000, 171.0
13.94000, 148.0
14.01000, 159.0
14.08000, 151.0
14.15000, 146.0
14.22000, 152.0
14.29000, 139.0
14.36000, 146.0
14.43000, 132.0
14.50000, 136.0
14.57000, 142.0
14.64000, 142.0
14.71000, 120.0
14.78000, 146.0
14.85000, 133.0
14.92000, 127.0
14.99000, 128.0
15.06000, 129.0
15.13000, 133.0
15.20000, 139.0
15.27000, 121.0
15.34000, 112.0
15.41000, 117.0
15.48000, 123.0
15.55000, 102.0
15.62000, 100.0
15.69000, 112.0
15.76000, 111.0
15.83000, 110.0
15.90000, 102.0
15.97000, 99.0
16.04000, 106.0
16.11000, 99.0
16.18000, 118.0
16.25000, 95.0
16.32000, 101.0
16.39000, 87.0
16.46000, 95.0
16.53000, 105.0
16.60000, 99.0
16.67000, 92.0
16.74000, 82.0
16.81000, 85.0
16.88000, 82.0
16.95000, 77.0
17.02000, 72.0
17.09000, 77.0
17.16000, 80.0
17.23000, 74.0
17.30000, 74.0
17.37000, 69.0
17.44000, 72.0
17.51000, 61.0
17.58000, 59.0
17.65000, 70.0
17.72000, 66.0
17.79000, 70.0
17.86000, 72.0
17.93000, 71.0
18.00000, 58.0
18.07000, 78.0
18.14000, 62.0
18.21000, 58.0
18.28000, 67.0
18.35000, 72.0
18.42000, 74.0
18.49000, 76.0
18.56000, 74.0
18.63000, 53.0
18.70000, 54.0
18.77000, 52.0
18.84000, 41.0
18.91000, 52.0
18.98000, 50.0
19.05000, 55.0
19.12000, 55.0
19.19000, 53.0
19.26000, 53.0
19.33000, 47.0
19.40000, 48.0
19.47000, 53.0
19.54000, 47.0
19.61000, 45.0
19.68000, 57.0
19.75000, 61.0
19.82000, 68.0
19.89000, 53.0
19.96000, 29.0
20.03000, 44.0
20.10000, 35.0
20.17000, 43.0
20.24000, 37.0
20.27000, 32.0
#ENDOFDATA   :