File: data/exports/GaSb_15kV_200pA.emsa
#FORMAT      : EMSA/MAS Spectral Data File
#VERSION     : 1.0
#TITLE       : GaSb_15kV_200pA_processTime6
#DATE        : 08-MAR-2023
#TIME        : 15:45
#OWNER       :
#NPOINTS     : 2048.0
#NCOLUMNS    : 1.0
#XUNITS      : keV
#YUNITS      : counts
#DATATYPE    : XY
#XPERCHAN    : 0.01
#OFFSET      : -0.2
#SIGNALTYPE  : EDS
#CHOFFSET    : 20.0
#LIVETIME    : 61.9191
#REALTIME    : 130.952
#BEAMKV      : 15.0
#MAGCAM      : 4894.0
#XTILTSTGE   : 0.0
#AZIMANGLE   : 0.0
#ELEVANGLE   : 35.0
#XPOSITION mm: -7.7878
#YPOSITION mm: 1.3232
#ZPOSITION mm: 10.0002
##OXINSTPT   : 6
##OXINSTSTROB: 31.87
##OXINSTNDET : 1
##OXINSTELEMS: 31,51
##OXINSTLABEL: 31, 9.252, Ga
##OXINSTLABEL: 31, 10.264, Ga
##OXINSTLABEL: 31, 1.098, Ga
##OXINSTLABEL: 31, 0.984, Ga
##OXINSTLABEL: 31, 0.957, Ga
##OXINSTLABEL: 51, 3.605, Sb
##OXINSTLABEL: 51, 3.844, Sb
##OXINSTLABEL: 51, 4.101, Sb
##OXINSTLABEL: 51, 3.437, Sb
##OXINSTLABEL: 51, 4.348, Sb
##OXINSTLABEL: 51, 4.600, Sb
##OXINSTLABEL: 51, 3.189, Sb
##OXINSTLABEL: 51, 0.429, Sb
#SPECTRUM    : Spectral Data Starts Here
-0.20000, 0.0
-0.13000, 0.0
-0.06000, 12.0
0.01000, 5130.0
0.08000, 153.0
0.15000, 470.0
0.22000, 822.0
0.29000, 1351.0
0.36000, 760.0
0.43000, 3723.0
0.50000, 1912.0
0.57000, 860.0
0.64000, 798.0
0.71000, 1071.0
0.78000, 1221.0
0.85000, 1117.0
0.92000, 1443.0
0.99000, 2166.0
1.06000, 7598.0
1.13000, 19017.0
1.20000, 1602.0
1.27000, 1100.0
1.34000, 1043.0
1.41000, 1089.0
1.48000, 1182.0
1.55000, 1138.0
1.62000, 1187.0
1.69000, 1239.0
1.76000, 1494.0
1.83000, 1440.0
1.90000, 1354.0
1.97000, 1241.0
2.04000, 1273.0
2.11000, 1355.0
2.18000, 1290.0
2.25000, 1237.0
2.32000, 1216.0
2.39000, 1247.0
2.46000, 1186.0
2.53000, 1242.0
2.60000, 1208.0
2.67000, 1205.0
2.74000, 1159.0
2.81000, 1120.0
2.88000, 1130.0
2.95000, 1121.0
3.02000, 1086.0
3.09000, 1081.0
3.16000, 1531.0
3.23000, 1558.0
3.30000, 1035.0
3.37000, 1099.0
3.44000, 1350.0
3.51000, 2531.0
3.58000, 15650.0
3.65000, 13012.0
3.72000, 1863.0
3.79000, 4137.0
3.86000, 9508.0
3.93000, 4580.0
4.00000, 1851.0
4.07000, 2596.0
4.14000, 2665.0
4.21000, 1005.0
4.28000, 980.0
4.35000, 1533.0
4.42000, 945.0
4.49000, 696.0
4.56000, 936.0
4.63000, 947.0
4.70000, 705.0
4.77000, 652.0
4.84000, 571.0
4.91000, 574.0
4.98000, 577.0
5.05000, 565.0
5.12000, 560.0
5.19000, 577.0
5.26000, 520.0
5.33000, 526.0
5.40000, 514.0
5.47000, 481.0
5.54000, 510.0
5.61000, 508.0
5.68000, 477.0
5.75000, 492.0
5.82000, 472.0
5.89000, 474.0
5.96000, 466.0
6.03000, 453.0
6.10000, 466.0
6.17000, 440.0
6.24000, 452.0
6.31000, 461.0
6.38000, 438.0
6.45000, 404.0
6.52000, 410.0
6.59000, 397.0
6.66000, 404.0
6.73000, 390.0
6.80000, 406.0
6.87000, 386.0
6.94000, 379.0
7.01000, 387.0
7.08000, 360.0
7.15000, 384.0
7.22000, 366.0
7.29000, 362.0
7.36000, 329.0
7.43000, 356.0
7.50000, 338.0
7.57000, 342.0
7.64000, 335.0
7.71000, 318.0
7.78000, 324.0
7.85000, 311.0
7.92000, 319.0
7.99000, 318.0
8.06000, 307.0
8.13000, 293.0
8.20000, 295.0
8.27000, 282.0
8.34000, 284.0
8.41000, 264.0
8.48000, 261.0
8.55000, 281.0
8.62000, 263.0
8.69000, 259.0
8.76000, 267.0
8.83000, 259.0
8.90000, 244.0
8.97000, 246.0
9.04000, 276.0
9.11000, 489.0
9.18000, 1385.0
9.25000, 1944.0
9.32000, 989.0
9.39000, 359.0
9.46000, 218.0
9.53000, 211.0
9.60000, 217.0
9.67000, 187.0
9.74000, 171.0
9.81000, 176.0
9.88000, 202.0
9.95000, 189.0
10.02000, 179.0
10.09000, 192.0
10.16000, 283.0
10.23000, 380.0
10.30000, 361.0
10.37000, 226.0
10.44000, 169.0
10.51000, 153.0
10.58000, 141.0
10.65000, 152.0
10.72000, 140.0
10.79000, 126.0
10.86000, 128.0
10.93000, 136.0
11.00000, 151.0
11.07000, 122.0
11.14000, 120.0
11.21000, 138.0
11.28000, 119.0
11.35000, 109.0
11.42000, 104.0
11.49000, 112.0
11.56000, 103.0
11.63000, 101.0
11.70000, 97.0
11.77000, 104.0
11.84000, 88.0
11.91000, 99.0
11.98000, 104.0
12.05000, 87.0
12.12000, 78.0
12.19000, 86.0
12.26000, 77.0
12.33000, 75.0
12.40000, 80.0
12.47000, 77.0
12.54000, 70.0
12.61000, 61.0
12.68000, 78.0
12.75000, 63.0
12.82000, 69.0
12.89000, 65.0
12.96000, 59.0
13.03000, 63.0
13.10000, 63.0
13.17000, 46.0
13.24000, 51.0
13.31000, 48.0
13.38000, 57.0
13.45000, 40.0
13.52000, 41.0
13.59000, 36.0
13.66000, 35.0
13.73000, 35.0
13.80000, 30.0
13.87000, 36.0
13.94000, 39.0
14.01000, 25.0
14.08000, 24.0
14.15000, 27.0
14.22000, 22.0
14.29000, 23.0
14.36000, 15.0
14.43000, 14.0
14.50000, 22.0
14.57000, 12.0
14.64000, 7.0
14.71000, 11.0
14.78000, 8.0
14.85000, 8.0
14.92000, 6.0
14.99000, 5.0
15.06000, 2.0
15.13000, 2.0
15.20000, 3.0
15.27000, 2.0
15.34000, 2.0
15.41000, 1.0
15.48000, 1.0
15.55000, 0.0
15.62000, 2.0
15.69000, 5.0
15.76000, 1.0
15.83000, 2.0
15.90000, 3.0
15.97000, 3.0
16.04000, 1.0
16.11000, 1.0
16.18000, 1.0
16.25000, 0.0
16.32000, 1.0
16.39000, 2.0
16.46000, 2.0
16.53000, 1.0
16.60000, 2.0
16.67000, 1.0
16.74000, 0.0
16.81000, 0.0
16.88000, 3.0
16.95000, 1.0
17.02000, 1.0
17.09000, 1.0
17.16000, 1.0
17.23000, 0.0
17.30000, 1.0
17.37000, 0.0
17.44000, 0.0
17.51000, 2.0
17.58000, 1.0
17.65000, 0.0
17.72000, 2.0
17.79000, 0.0
17.86000, 0.0
17.93000, 1.0
18.00000, 0.0
18.07000, 0.0
18.14000, 1.0
18.21000, 0.0
18.28000, 1.0
18.35000, 2.0
18.42000, 1.0
18.49000, 1.0
18.56000, 1.0
18.63000, 0.0
18.70000, 0.0
18.77000, 1.0
18.84000, 0.0
18.91000, 0.0
18.98000, 0.0
19.05000, 0.0
19.12000, 1.0
19.19000, 1.0
19.26000, 0.0
19.33000, 1.0
19.40000, 1.0
19.47000, 0.0
19.54000, 0.0
19.61000, 0.0
19.68000, 0.0
19.75000, 0.0
19.82000, 0.0
19.89000, 0.0
19.96000, 0.0
20.03000, 0.0
20.10000, 1.0
20.17000, 1.0
20.24000, 0.0
20.27000, 0.0
#ENDOFDATA   :