File: data/exports/GaSb_30kV_50pA_processTime2.emsa
#FORMAT      : EMSA/MAS Spectral Data File
#VERSION     : 1.0
#TITLE       : GaSb_30kV_50pA_processTime2
#DATE        : 08-MAR-2023
#TIME        : 15:03
#OWNER       :
#NPOINTS     : 2048.0
#NCOLUMNS    : 1.0
#XUNITS      : keV
#YUNITS      : counts
#DATATYPE    : XY
#XPERCHAN    : 0.01
#OFFSET      : -0.2
#SIGNALTYPE  : EDS
#CHOFFSET    : 20.0
#LIVETIME    : 120.0
#REALTIME    : 128.89
#BEAMKV      : 30.0
#MAGCAM      : 4894.0
#XTILTSTGE   : 0.0
#AZIMANGLE   : 0.0
#ELEVANGLE   : 35.0
#XPOSITION mm: -8.1703
#YPOSITION mm: 1.2743
#ZPOSITION mm: 10.0002
##OXINSTPT   : 2
##OXINSTSTROB: 71.99
##OXINSTNDET : 1
##OXINSTELEMS: 25,26,27,28,29,13,6,8
##OXINSTLABEL: 25, 5.899, Mn
##OXINSTLABEL: 25, 6.490, Mn
##OXINSTLABEL: 25, 0.636, Mn
##OXINSTLABEL: 25, 0.556, Mn
##OXINSTLABEL: 26, 6.404, Fe
##OXINSTLABEL: 26, 7.058, Fe
##OXINSTLABEL: 26, 0.703, Fe
##OXINSTLABEL: 26, 0.615, Fe
##OXINSTLABEL: 27, 6.930, Co
##OXINSTLABEL: 27, 7.650, Co
##OXINSTLABEL: 27, 0.776, Co
##OXINSTLABEL: 27, 0.694, Co
##OXINSTLABEL: 27, 0.678, Co
##OXINSTLABEL: 28, 7.478, Ni
##OXINSTLABEL: 28, 8.265, Ni
##OXINSTLABEL: 28, 0.851, Ni
##OXINSTLABEL: 28, 0.762, Ni
##OXINSTLABEL: 28, 0.743, Ni
##OXINSTLABEL: 29, 8.048, Cu
##OXINSTLABEL: 29, 8.905, Cu
##OXINSTLABEL: 29, 0.930, Cu
##OXINSTLABEL: 29, 0.832, Cu
##OXINSTLABEL: 29, 0.811, Cu
##OXINSTLABEL: 13, 1.487, Al
##OXINSTLABEL: 6, 0.277, C
##OXINSTLABEL: 8, 0.525, O
#SPECTRUM    : Spectral Data Starts Here
-0.20000, 0.0
-0.13000, 0.0
-0.06000, 21.0
0.01000, 2452.0
0.08000, 2977.0
0.15000, 259.0
0.22000, 550.0
0.29000, 979.0
0.36000, 535.0
0.43000, 1287.0
0.50000, 893.0
0.57000, 512.0
0.64000, 371.0
0.71000, 483.0
0.78000, 550.0
0.85000, 493.0
0.92000, 778.0
0.99000, 1125.0
1.06000, 5244.0
1.13000, 8247.0
1.20000, 1272.0
1.27000, 538.0
1.34000, 504.0
1.41000, 583.0
1.48000, 650.0
1.55000, 665.0
1.62000, 687.0
1.69000, 908.0
1.76000, 1082.0
1.83000, 1096.0
1.90000, 1042.0
1.97000, 912.0
2.04000, 945.0
2.11000, 1120.0
2.18000, 1083.0
2.25000, 990.0
2.32000, 1043.0
2.39000, 1119.0
2.46000, 1074.0
2.53000, 1125.0
2.60000, 1114.0
2.67000, 1143.0
2.74000, 1119.0
2.81000, 1164.0
2.88000, 1138.0
2.95000, 1131.0
3.02000, 1196.0
3.09000, 1327.0
3.16000, 1985.0
3.23000, 1931.0
3.30000, 1384.0
3.37000, 1447.0
3.44000, 1855.0
3.51000, 5811.0
3.58000, 24820.0
3.65000, 21047.0
3.72000, 4594.0
3.79000, 8280.0
3.86000, 15569.0
3.93000, 8912.0
4.00000, 3669.0
4.07000, 4559.0
4.14000, 4288.0
4.21000, 1636.0
4.28000, 1440.0
4.35000, 2135.0
4.42000, 1357.0
4.49000, 888.0
4.56000, 1262.0
4.63000, 1217.0
4.70000, 843.0
4.77000, 714.0
4.84000, 696.0
4.91000, 699.0
4.98000, 663.0
5.05000, 639.0
5.12000, 685.0
5.19000, 703.0
5.26000, 692.0
5.33000, 697.0
5.40000, 656.0
5.47000, 672.0
5.54000, 691.0
5.61000, 663.0
5.68000, 666.0
5.75000, 654.0
5.82000, 660.0
5.89000, 685.0
5.96000, 641.0
6.03000, 669.0
6.10000, 665.0
6.17000, 659.0
6.24000, 661.0
6.31000, 641.0
6.38000, 648.0
6.45000, 635.0
6.52000, 641.0
6.59000, 651.0
6.66000, 622.0
6.73000, 620.0
6.80000, 618.0
6.87000, 569.0
6.94000, 643.0
7.01000, 626.0
7.08000, 604.0
7.15000, 606.0
7.22000, 675.0
7.29000, 630.0
7.36000, 576.0
7.43000, 655.0
7.50000, 616.0
7.57000, 598.0
7.64000, 614.0
7.71000, 606.0
7.78000, 587.0
7.85000, 596.0
7.92000, 604.0
7.99000, 596.0
8.06000, 547.0
8.13000, 563.0
8.20000, 530.0
8.27000, 556.0
8.34000, 534.0
8.41000, 555.0
8.48000, 553.0
8.55000, 553.0
8.62000, 526.0
8.69000, 513.0
8.76000, 508.0
8.83000, 512.0
8.90000, 536.0
8.97000, 525.0
9.04000, 777.0
9.11000, 2800.0
9.18000, 8274.0
9.25000, 10940.0
9.32000, 5840.0
9.39000, 1550.0
9.46000, 576.0
9.53000, 513.0
9.60000, 466.0
9.67000, 491.0
9.74000, 484.0
9.81000, 477.0
9.88000, 434.0
9.95000, 454.0
10.02000, 452.0
10.09000, 586.0
10.16000, 1083.0
10.23000, 1802.0
10.30000, 1618.0
10.37000, 824.0
10.44000, 479.0
10.51000, 381.0
10.58000, 348.0
10.65000, 367.0
10.72000, 347.0
10.79000, 377.0
10.86000, 373.0
10.93000, 373.0
11.00000, 379.0
11.07000, 357.0
11.14000, 346.0
11.21000, 350.0
11.28000, 339.0
11.35000, 340.0
11.42000, 324.0
11.49000, 329.0
11.56000, 315.0
11.63000, 317.0
11.70000, 316.0
11.77000, 327.0
11.84000, 304.0
11.91000, 317.0
11.98000, 324.0
12.05000, 305.0
12.12000, 289.0
12.19000, 291.0
12.26000, 283.0
12.33000, 298.0
12.40000, 311.0
12.47000, 284.0
12.54000, 297.0
12.61000, 280.0
12.68000, 279.0
12.75000, 293.0
12.82000, 281.0
12.89000, 253.0
12.96000, 244.0
13.03000, 261.0
13.10000, 268.0
13.17000, 269.0
13.24000, 270.0
13.31000, 245.0
13.38000, 248.0
13.45000, 250.0
13.52000, 229.0
13.59000, 240.0
13.66000, 244.0
13.73000, 225.0
13.80000, 223.0
13.87000, 216.0
13.94000, 206.0
14.01000, 205.0
14.08000, 213.0
14.15000, 234.0
14.22000, 198.0
14.29000, 193.0
14.36000, 207.0
14.43000, 195.0
14.50000, 180.0
14.57000, 196.0
14.64000, 190.0
14.71000, 178.0
14.78000, 172.0
14.85000, 170.0
14.92000, 171.0
14.99000, 177.0
15.06000, 177.0
15.13000, 154.0
15.20000, 174.0
15.27000, 162.0
15.34000, 148.0
15.41000, 150.0
15.48000, 159.0
15.55000, 157.0
15.62000, 147.0
15.69000, 141.0
15.76000, 144.0
15.83000, 139.0
15.90000, 157.0
15.97000, 141.0
16.04000, 135.0
16.11000, 125.0
16.18000, 141.0
16.25000, 115.0
16.32000, 128.0
16.39000, 134.0
16.46000, 116.0
16.53000, 116.0
16.60000, 125.0
16.67000, 134.0
16.74000, 116.0
16.81000, 119.0
16.88000, 115.0
16.95000, 115.0
17.02000, 114.0
17.09000, 100.0
17.16000, 106.0
17.23000, 105.0
17.30000, 107.0
17.37000, 101.0
17.44000, 100.0
17.51000, 91.0
17.58000, 86.0
17.65000, 106.0
17.72000, 111.0
17.79000, 88.0
17.86000, 93.0
17.93000, 94.0
18.00000, 87.0
18.07000, 92.0
18.14000, 83.0
18.21000, 81.0
18.28000, 80.0
18.35000, 85.0
18.42000, 93.0
18.49000, 75.0
18.56000, 81.0
18.63000, 86.0
18.70000, 72.0
18.77000, 84.0
18.84000, 76.0
18.91000, 67.0
18.98000, 68.0
19.05000, 65.0
19.12000, 65.0
19.19000, 63.0
19.26000, 68.0
19.33000, 61.0
19.40000, 62.0
19.47000, 72.0
19.54000, 53.0
19.61000, 59.0
19.68000, 60.0
19.75000, 57.0
19.82000, 52.0
19.89000, 49.0
19.96000, 55.0
20.03000, 61.0
20.10000, 54.0
20.17000, 47.0
20.24000, 47.0
20.27000, 55.0
#ENDOFDATA   :