File: data/exports/GaSb_30kV_50pA_processTime4.emsa
#FORMAT      : EMSA/MAS Spectral Data File
#VERSION     : 1.0
#TITLE       : GaSb_30kV_50pA_processTime4
#DATE        : 08-MAR-2023
#TIME        : 15:00
#OWNER       :
#NPOINTS     : 2048.0
#NCOLUMNS    : 1.0
#XUNITS      : keV
#YUNITS      : counts
#DATATYPE    : XY
#XPERCHAN    : 0.01
#OFFSET      : -0.2
#SIGNALTYPE  : EDS
#CHOFFSET    : 20.0
#LIVETIME    : 120.0
#REALTIME    : 137.771
#BEAMKV      : 30.0
#MAGCAM      : 4894.0
#XTILTSTGE   : 0.0
#AZIMANGLE   : 0.0
#ELEVANGLE   : 35.0
#XPOSITION mm: -8.1703
#YPOSITION mm: 1.2743
#ZPOSITION mm: 10.0002
##OXINSTPT   : 4
##OXINSTSTROB: 47.09
##OXINSTNDET : 1
##OXINSTELEMS: 25,26,27,28,29,13,6,8
##OXINSTLABEL: 25, 5.899, Mn
##OXINSTLABEL: 25, 6.490, Mn
##OXINSTLABEL: 25, 0.636, Mn
##OXINSTLABEL: 25, 0.556, Mn
##OXINSTLABEL: 26, 6.404, Fe
##OXINSTLABEL: 26, 7.058, Fe
##OXINSTLABEL: 26, 0.703, Fe
##OXINSTLABEL: 26, 0.615, Fe
##OXINSTLABEL: 27, 6.930, Co
##OXINSTLABEL: 27, 7.650, Co
##OXINSTLABEL: 27, 0.776, Co
##OXINSTLABEL: 27, 0.694, Co
##OXINSTLABEL: 27, 0.678, Co
##OXINSTLABEL: 28, 7.478, Ni
##OXINSTLABEL: 28, 8.265, Ni
##OXINSTLABEL: 28, 0.851, Ni
##OXINSTLABEL: 28, 0.762, Ni
##OXINSTLABEL: 28, 0.743, Ni
##OXINSTLABEL: 29, 8.048, Cu
##OXINSTLABEL: 29, 8.905, Cu
##OXINSTLABEL: 29, 0.930, Cu
##OXINSTLABEL: 29, 0.832, Cu
##OXINSTLABEL: 29, 0.811, Cu
##OXINSTLABEL: 13, 1.487, Al
##OXINSTLABEL: 6, 0.277, C
##OXINSTLABEL: 8, 0.525, O
#SPECTRUM    : Spectral Data Starts Here
-0.20000, 0.0
-0.13000, 0.0
-0.06000, 5.0
0.01000, 3220.0
0.08000, 1218.0
0.15000, 228.0
0.22000, 478.0
0.29000, 971.0
0.36000, 405.0
0.43000, 1551.0
0.50000, 883.0
0.57000, 471.0
0.64000, 327.0
0.71000, 513.0
0.78000, 538.0
0.85000, 524.0
0.92000, 748.0
0.99000, 1029.0
1.06000, 4515.0
1.13000, 9243.0
1.20000, 928.0
1.27000, 523.0
1.34000, 547.0
1.41000, 578.0
1.48000, 647.0
1.55000, 631.0
1.62000, 735.0
1.69000, 875.0
1.76000, 1148.0
1.83000, 1132.0
1.90000, 1042.0
1.97000, 855.0
2.04000, 901.0
2.11000, 1097.0
2.18000, 1043.0
2.25000, 1018.0
2.32000, 1051.0
2.39000, 1092.0
2.46000, 1081.0
2.53000, 1081.0
2.60000, 1138.0
2.67000, 1138.0
2.74000, 1146.0
2.81000, 1198.0
2.88000, 1178.0
2.95000, 1235.0
3.02000, 1208.0
3.09000, 1292.0
3.16000, 1999.0
3.23000, 1999.0
3.30000, 1290.0
3.37000, 1370.0
3.44000, 1848.0
3.51000, 4489.0
3.58000, 26221.0
3.65000, 22071.0
3.72000, 3355.0
3.79000, 7674.0
3.86000, 16904.0
3.93000, 8670.0
4.00000, 3420.0
4.07000, 4504.0
4.14000, 4537.0
4.21000, 1437.0
4.28000, 1356.0
4.35000, 2232.0
4.42000, 1341.0
4.49000, 848.0
4.56000, 1264.0
4.63000, 1327.0
4.70000, 873.0
4.77000, 714.0
4.84000, 672.0
4.91000, 684.0
4.98000, 703.0
5.05000, 658.0
5.12000, 686.0
5.19000, 689.0
5.26000, 702.0
5.33000, 672.0
5.40000, 674.0
5.47000, 660.0
5.54000, 685.0
5.61000, 668.0
5.68000, 675.0
5.75000, 660.0
5.82000, 669.0
5.89000, 702.0
5.96000, 687.0
6.03000, 647.0
6.10000, 654.0
6.17000, 641.0
6.24000, 660.0
6.31000, 635.0
6.38000, 667.0
6.45000, 666.0
6.52000, 656.0
6.59000, 648.0
6.66000, 622.0
6.73000, 632.0
6.80000, 653.0
6.87000, 643.0
6.94000, 624.0
7.01000, 640.0
7.08000, 608.0
7.15000, 642.0
7.22000, 636.0
7.29000, 621.0
7.36000, 594.0
7.43000, 669.0
7.50000, 663.0
7.57000, 608.0
7.64000, 609.0
7.71000, 578.0
7.78000, 595.0
7.85000, 606.0
7.92000, 574.0
7.99000, 571.0
8.06000, 596.0
8.13000, 561.0
8.20000, 548.0
8.27000, 537.0
8.34000, 542.0
8.41000, 512.0
8.48000, 535.0
8.55000, 536.0
8.62000, 483.0
8.69000, 527.0
8.76000, 541.0
8.83000, 509.0
8.90000, 528.0
8.97000, 534.0
9.04000, 661.0
9.11000, 2451.0
9.18000, 8167.0
9.25000, 11430.0
9.32000, 6004.0
9.39000, 1415.0
9.46000, 529.0
9.53000, 487.0
9.60000, 474.0
9.67000, 441.0
9.74000, 483.0
9.81000, 462.0
9.88000, 464.0
9.95000, 433.0
10.02000, 478.0
10.09000, 567.0
10.16000, 1055.0
10.23000, 1905.0
10.30000, 1709.0
10.37000, 852.0
10.44000, 461.0
10.51000, 361.0
10.58000, 379.0
10.65000, 387.0
10.72000, 373.0
10.79000, 370.0
10.86000, 367.0
10.93000, 340.0
11.00000, 359.0
11.07000, 322.0
11.14000, 343.0
11.21000, 368.0
11.28000, 339.0
11.35000, 337.0
11.42000, 337.0
11.49000, 322.0
11.56000, 336.0
11.63000, 329.0
11.70000, 298.0
11.77000, 319.0
11.84000, 305.0
11.91000, 309.0
11.98000, 319.0
12.05000, 279.0
12.12000, 268.0
12.19000, 317.0
12.26000, 292.0
12.33000, 285.0
12.40000, 276.0
12.47000, 286.0
12.54000, 298.0
12.61000, 284.0
12.68000, 274.0
12.75000, 268.0
12.82000, 301.0
12.89000, 266.0
12.96000, 297.0
13.03000, 268.0
13.10000, 277.0
13.17000, 275.0
13.24000, 267.0
13.31000, 253.0
13.38000, 242.0
13.45000, 240.0
13.52000, 234.0
13.59000, 235.0
13.66000, 235.0
13.73000, 242.0
13.80000, 218.0
13.87000, 221.0
13.94000, 218.0
14.01000, 205.0
14.08000, 221.0
14.15000, 186.0
14.22000, 204.0
14.29000, 202.0
14.36000, 203.0
14.43000, 200.0
14.50000, 188.0
14.57000, 174.0
14.64000, 180.0
14.71000, 186.0
14.78000, 169.0
14.85000, 179.0
14.92000, 193.0
14.99000, 173.0
15.06000, 160.0
15.13000, 167.0
15.20000, 163.0
15.27000, 145.0
15.34000, 165.0
15.41000, 165.0
15.48000, 148.0
15.55000, 143.0
15.62000, 142.0
15.69000, 156.0
15.76000, 163.0
15.83000, 138.0
15.90000, 142.0
15.97000, 123.0
16.04000, 155.0
16.11000, 142.0
16.18000, 128.0
16.25000, 127.0
16.32000, 138.0
16.39000, 132.0
16.46000, 128.0
16.53000, 136.0
16.60000, 124.0
16.67000, 117.0
16.74000, 102.0
16.81000, 132.0
16.88000, 105.0
16.95000, 111.0
17.02000, 105.0
17.09000, 100.0
17.16000, 112.0
17.23000, 112.0
17.30000, 114.0
17.37000, 94.0
17.44000, 93.0
17.51000, 94.0
17.58000, 95.0
17.65000, 91.0
17.72000, 88.0
17.79000, 84.0
17.86000, 94.0
17.93000, 93.0
18.00000, 77.0
18.07000, 86.0
18.14000, 85.0
18.21000, 81.0
18.28000, 83.0
18.35000, 76.0
18.42000, 90.0
18.49000, 81.0
18.56000, 86.0
18.63000, 83.0
18.70000, 81.0
18.77000, 69.0
18.84000, 64.0
18.91000, 64.0
18.98000, 63.0
19.05000, 67.0
19.12000, 73.0
19.19000, 79.0
19.26000, 63.0
19.33000, 69.0
19.40000, 69.0
19.47000, 68.0
19.54000, 56.0
19.61000, 67.0
19.68000, 57.0
19.75000, 52.0
19.82000, 55.0
19.89000, 56.0
19.96000, 60.0
20.03000, 49.0
20.10000, 46.0
20.17000, 48.0
20.24000, 50.0
20.27000, 49.0
#ENDOFDATA   :