File: data/exports/GaSb_15kV_400pA.emsa
#FORMAT      : EMSA/MAS Spectral Data File
#VERSION     : 1.0
#TITLE       : GaSb_15kV_400pA_processTime6
#DATE        : 08-MAR-2023
#TIME        : 15:39
#OWNER       :
#NPOINTS     : 2048.0
#NCOLUMNS    : 1.0
#XUNITS      : keV
#YUNITS      : counts
#DATATYPE    : XY
#XPERCHAN    : 0.01
#OFFSET      : -0.2
#SIGNALTYPE  : EDS
#CHOFFSET    : 20.0
#LIVETIME    : 57.511
#REALTIME    : 252.662
#BEAMKV      : 15.0
#MAGCAM      : 4894.0
#XTILTSTGE   : 0.0
#AZIMANGLE   : 0.0
#ELEVANGLE   : 35.0
#XPOSITION mm: -7.7878
#YPOSITION mm: 1.3232
#ZPOSITION mm: 10.0002
##OXINSTPT   : 6
##OXINSTSTROB: 33.23
##OXINSTNDET : 1
##OXINSTELEMS: 31,51,6,8,14
##OXINSTLABEL: 31, 9.252, Ga
##OXINSTLABEL: 31, 10.264, Ga
##OXINSTLABEL: 31, 1.098, Ga
##OXINSTLABEL: 31, 0.984, Ga
##OXINSTLABEL: 31, 0.957, Ga
##OXINSTLABEL: 51, 3.605, Sb
##OXINSTLABEL: 51, 3.844, Sb
##OXINSTLABEL: 51, 4.101, Sb
##OXINSTLABEL: 51, 3.437, Sb
##OXINSTLABEL: 51, 4.348, Sb
##OXINSTLABEL: 51, 4.600, Sb
##OXINSTLABEL: 51, 3.189, Sb
##OXINSTLABEL: 51, 0.429, Sb
##OXINSTLABEL: 6, 0.277, C
##OXINSTLABEL: 8, 0.525, O
##OXINSTLABEL: 14, 1.740, Si
#SPECTRUM    : Spectral Data Starts Here
-0.20000, 0.0
-0.13000, 0.0
-0.06000, 24.0
0.01000, 4197.0
0.08000, 254.0
0.15000, 832.0
0.22000, 1550.0
0.29000, 2616.0
0.36000, 1555.0
0.43000, 6819.0
0.50000, 3665.0
0.57000, 1553.0
0.64000, 1400.0
0.71000, 2049.0
0.78000, 2277.0
0.85000, 2047.0
0.92000, 2748.0
0.99000, 4045.0
1.06000, 14613.0
1.13000, 35090.0
1.20000, 3009.0
1.27000, 1990.0
1.34000, 1994.0
1.41000, 1997.0
1.48000, 2174.0
1.55000, 2177.0
1.62000, 2207.0
1.69000, 2364.0
1.76000, 2759.0
1.83000, 2662.0
1.90000, 2479.0
1.97000, 2215.0
2.04000, 2341.0
2.11000, 2496.0
2.18000, 2478.0
2.25000, 2364.0
2.32000, 2249.0
2.39000, 2308.0
2.46000, 2241.0
2.53000, 2216.0
2.60000, 2171.0
2.67000, 2279.0
2.74000, 2204.0
2.81000, 2110.0
2.88000, 2072.0
2.95000, 2014.0
3.02000, 2037.0
3.09000, 2060.0
3.16000, 2901.0
3.23000, 2964.0
3.30000, 2010.0
3.37000, 2090.0
3.44000, 2489.0
3.51000, 4764.0
3.58000, 28711.0
3.65000, 23961.0
3.72000, 3504.0
3.79000, 7745.0
3.86000, 17469.0
3.93000, 8683.0
4.00000, 3495.0
4.07000, 4812.0
4.14000, 4982.0
4.21000, 1874.0
4.28000, 1880.0
4.35000, 2907.0
4.42000, 1890.0
4.49000, 1337.0
4.56000, 1780.0
4.63000, 1847.0
4.70000, 1417.0
4.77000, 1217.0
4.84000, 1097.0
4.91000, 1107.0
4.98000, 1152.0
5.05000, 1091.0
5.12000, 994.0
5.19000, 1029.0
5.26000, 1043.0
5.33000, 994.0
5.40000, 1021.0
5.47000, 966.0
5.54000, 945.0
5.61000, 937.0
5.68000, 888.0
5.75000, 950.0
5.82000, 899.0
5.89000, 864.0
5.96000, 875.0
6.03000, 885.0
6.10000, 854.0
6.17000, 847.0
6.24000, 811.0
6.31000, 838.0
6.38000, 834.0
6.45000, 831.0
6.52000, 786.0
6.59000, 787.0
6.66000, 747.0
6.73000, 753.0
6.80000, 778.0
6.87000, 722.0
6.94000, 705.0
7.01000, 737.0
7.08000, 696.0
7.15000, 748.0
7.22000, 750.0
7.29000, 699.0
7.36000, 698.0
7.43000, 718.0
7.50000, 737.0
7.57000, 646.0
7.64000, 635.0
7.71000, 655.0
7.78000, 638.0
7.85000, 587.0
7.92000, 595.0
7.99000, 584.0
8.06000, 579.0
8.13000, 600.0
8.20000, 555.0
8.27000, 510.0
8.34000, 515.0
8.41000, 530.0
8.48000, 535.0
8.55000, 504.0
8.62000, 482.0
8.69000, 482.0
8.76000, 464.0
8.83000, 494.0
8.90000, 458.0
8.97000, 460.0
9.04000, 523.0
9.11000, 922.0
9.18000, 2574.0
9.25000, 3582.0
9.32000, 1906.0
9.39000, 628.0
9.46000, 425.0
9.53000, 412.0
9.60000, 409.0
9.67000, 378.0
9.74000, 396.0
9.81000, 379.0
9.88000, 366.0
9.95000, 370.0
10.02000, 350.0
10.09000, 365.0
10.16000, 507.0
10.23000, 715.0
10.30000, 659.0
10.37000, 421.0
10.44000, 321.0
10.51000, 293.0
10.58000, 287.0
10.65000, 278.0
10.72000, 287.0
10.79000, 277.0
10.86000, 274.0
10.93000, 278.0
11.00000, 256.0
11.07000, 256.0
11.14000, 248.0
11.21000, 238.0
11.28000, 259.0
11.35000, 243.0
11.42000, 240.0
11.49000, 224.0
11.56000, 212.0
11.63000, 211.0
11.70000, 181.0
11.77000, 193.0
11.84000, 202.0
11.91000, 179.0
11.98000, 171.0
12.05000, 181.0
12.12000, 174.0
12.19000, 164.0
12.26000, 167.0
12.33000, 165.0
12.40000, 172.0
12.47000, 162.0
12.54000, 144.0
12.61000, 141.0
12.68000, 139.0
12.75000, 131.0
12.82000, 125.0
12.89000, 121.0
12.96000, 119.0
13.03000, 124.0
13.10000, 124.0
13.17000, 120.0
13.24000, 106.0
13.31000, 100.0
13.38000, 88.0
13.45000, 99.0
13.52000, 84.0
13.59000, 83.0
13.66000, 82.0
13.73000, 74.0
13.80000, 72.0
13.87000, 70.0
13.94000, 64.0
14.01000, 62.0
14.08000, 55.0
14.15000, 55.0
14.22000, 49.0
14.29000, 41.0
14.36000, 40.0
14.43000, 37.0
14.50000, 38.0
14.57000, 31.0
14.64000, 25.0
14.71000, 22.0
14.78000, 23.0
14.85000, 18.0
14.92000, 15.0
14.99000, 6.0
15.06000, 8.0
15.13000, 6.0
15.20000, 10.0
15.27000, 11.0
15.34000, 10.0
15.41000, 7.0
15.48000, 8.0
15.55000, 6.0
15.62000, 6.0
15.69000, 9.0
15.76000, 8.0
15.83000, 7.0
15.90000, 6.0
15.97000, 3.0
16.04000, 5.0
16.11000, 4.0
16.18000, 4.0
16.25000, 4.0
16.32000, 4.0
16.39000, 5.0
16.46000, 5.0
16.53000, 3.0
16.60000, 5.0
16.67000, 5.0
16.74000, 5.0
16.81000, 6.0
16.88000, 4.0
16.95000, 6.0
17.02000, 4.0
17.09000, 3.0
17.16000, 3.0
17.23000, 5.0
17.30000, 4.0
17.37000, 3.0
17.44000, 5.0
17.51000, 4.0
17.58000, 3.0
17.65000, 1.0
17.72000, 2.0
17.79000, 2.0
17.86000, 4.0
17.93000, 4.0
18.00000, 3.0
18.07000, 2.0
18.14000, 3.0
18.21000, 3.0
18.28000, 3.0
18.35000, 1.0
18.42000, 2.0
18.49000, 4.0
18.56000, 2.0
18.63000, 2.0
18.70000, 2.0
18.77000, 2.0
18.84000, 1.0
18.91000, 2.0
18.98000, 1.0
19.05000, 0.0
19.12000, 0.0
19.19000, 3.0
19.26000, 1.0
19.33000, 2.0
19.40000, 1.0
19.47000, 0.0
19.54000, 1.0
19.61000, 3.0
19.68000, 2.0
19.75000, 1.0
19.82000, 0.0
19.89000, 2.0
19.96000, 0.0
20.03000, 1.0
20.10000, 1.0
20.17000, 0.0
20.24000, 0.0
20.27000, 1.0
#ENDOFDATA   :