File: data/exports/GaSb_05kV_50pA.emsa
#FORMAT      : EMSA/MAS Spectral Data File
#VERSION     : 1.0
#TITLE       : GaSb_05kV_50pA
#DATE        : 08-MAR-2023
#TIME        : 14:55
#OWNER       :
#NPOINTS     : 2048.0
#NCOLUMNS    : 1.0
#XUNITS      : keV
#YUNITS      : counts
#DATATYPE    : XY
#XPERCHAN    : 0.01
#OFFSET      : -0.2
#SIGNALTYPE  : EDS
#CHOFFSET    : 20.0
#LIVETIME    : 120.0
#REALTIME    : 124.732
#BEAMKV      : 5.0
#MAGCAM      : 4894.0
#XTILTSTGE   : 0.0
#AZIMANGLE   : 0.0
#ELEVANGLE   : 35.0
#XPOSITION mm: -8.1703
#YPOSITION mm: 1.2743
#ZPOSITION mm: 10.0002
##OXINSTPT   : 6
##OXINSTSTROB: 30.80
##OXINSTNDET : 1
##OXINSTELEMS: 25,26,27,28,29,13,6,8
##OXINSTLABEL: 25, 5.899, Mn
##OXINSTLABEL: 25, 6.490, Mn
##OXINSTLABEL: 25, 0.636, Mn
##OXINSTLABEL: 25, 0.556, Mn
##OXINSTLABEL: 26, 6.404, Fe
##OXINSTLABEL: 26, 7.058, Fe
##OXINSTLABEL: 26, 0.703, Fe
##OXINSTLABEL: 26, 0.615, Fe
##OXINSTLABEL: 27, 6.930, Co
##OXINSTLABEL: 27, 7.650, Co
##OXINSTLABEL: 27, 0.776, Co
##OXINSTLABEL: 27, 0.694, Co
##OXINSTLABEL: 27, 0.678, Co
##OXINSTLABEL: 28, 7.478, Ni
##OXINSTLABEL: 28, 8.265, Ni
##OXINSTLABEL: 28, 0.851, Ni
##OXINSTLABEL: 28, 0.762, Ni
##OXINSTLABEL: 28, 0.743, Ni
##OXINSTLABEL: 29, 8.048, Cu
##OXINSTLABEL: 29, 8.905, Cu
##OXINSTLABEL: 29, 0.930, Cu
##OXINSTLABEL: 29, 0.832, Cu
##OXINSTLABEL: 29, 0.811, Cu
##OXINSTLABEL: 13, 1.487, Al
##OXINSTLABEL: 6, 0.277, C
##OXINSTLABEL: 8, 0.525, O
#SPECTRUM    : Spectral Data Starts Here
-0.20000, 0.0
-0.13000, 0.0
-0.06000, 2.0
0.01000, 10925.0
0.08000, 52.0
0.15000, 179.0
0.22000, 291.0
0.29000, 421.0
0.36000, 195.0
0.43000, 769.0
0.50000, 462.0
0.57000, 210.0
0.64000, 198.0
0.71000, 272.0
0.78000, 247.0
0.85000, 232.0
0.92000, 272.0
0.99000, 336.0
1.06000, 1003.0
1.13000, 2482.0
1.20000, 263.0
1.27000, 190.0
1.34000, 156.0
1.41000, 170.0
1.48000, 181.0
1.55000, 163.0
1.62000, 156.0
1.69000, 149.0
1.76000, 151.0
1.83000, 134.0
1.90000, 110.0
1.97000, 98.0
2.04000, 99.0
2.11000, 107.0
2.18000, 107.0
2.25000, 106.0
2.32000, 95.0
2.39000, 79.0
2.46000, 88.0
2.53000, 76.0
2.60000, 93.0
2.67000, 80.0
2.74000, 61.0
2.81000, 69.0
2.88000, 59.0
2.95000, 56.0
3.02000, 62.0
3.09000, 60.0
3.16000, 58.0
3.23000, 54.0
3.30000, 51.0
3.37000, 45.0
3.44000, 51.0
3.51000, 43.0
3.58000, 111.0
3.65000, 92.0
3.72000, 51.0
3.79000, 48.0
3.86000, 55.0
3.93000, 39.0
4.00000, 29.0
4.07000, 27.0
4.14000, 28.0
4.21000, 19.0
4.28000, 17.0
4.35000, 22.0
4.42000, 17.0
4.49000, 11.0
4.56000, 11.0
4.63000, 13.0
4.70000, 10.0
4.77000, 5.0
4.84000, 3.0
4.91000, 2.0
4.98000, 1.0
5.05000, 0.0
5.12000, 0.0
5.19000, 0.0
5.26000, 0.0
5.33000, 0.0
5.40000, 0.0
5.47000, 0.0
5.54000, 0.0
5.61000, 0.0
5.68000, 0.0
5.75000, 0.0
5.82000, 0.0
5.89000, 0.0
5.96000, 0.0
6.03000, 0.0
6.10000, 0.0
6.17000, 0.0
6.24000, 0.0
6.31000, 0.0
6.38000, 0.0
6.45000, 0.0
6.52000, 0.0
6.59000, 0.0
6.66000, 0.0
6.73000, 0.0
6.80000, 0.0
6.87000, 0.0
6.94000, 0.0
7.01000, 0.0
7.08000, 0.0
7.15000, 0.0
7.22000, 0.0
7.29000, 0.0
7.36000, 0.0
7.43000, 0.0
7.50000, 0.0
7.57000, 0.0
7.64000, 0.0
7.71000, 0.0
7.78000, 0.0
7.85000, 0.0
7.92000, 0.0
7.99000, 0.0
8.06000, 0.0
8.13000, 0.0
8.20000, 0.0
8.27000, 0.0
8.34000, 0.0
8.41000, 0.0
8.48000, 0.0
8.55000, 0.0
8.62000, 0.0
8.69000, 0.0
8.76000, 0.0
8.83000, 0.0
8.90000, 0.0
8.97000, 0.0
9.04000, 0.0
9.11000, 0.0
9.18000, 0.0
9.25000, 0.0
9.32000, 0.0
9.39000, 0.0
9.46000, 0.0
9.53000, 0.0
9.60000, 0.0
9.67000, 0.0
9.74000, 0.0
9.81000, 0.0
9.88000, 0.0
9.95000, 0.0
10.02000, 0.0
10.09000, 0.0
10.16000, 0.0
10.23000, 0.0
10.30000, 0.0
10.37000, 0.0
10.44000, 0.0
10.51000, 0.0
10.58000, 0.0
10.65000, 0.0
10.72000, 0.0
10.79000, 0.0
10.86000, 0.0
10.93000, 0.0
11.00000, 0.0
11.07000, 0.0
11.14000, 0.0
11.21000, 0.0
11.28000, 0.0
11.35000, 0.0
11.42000, 0.0
11.49000, 0.0
11.56000, 0.0
11.63000, 0.0
11.70000, 0.0
11.77000, 0.0
11.84000, 0.0
11.91000, 0.0
11.98000, 0.0
12.05000, 0.0
12.12000, 0.0
12.19000, 0.0
12.26000, 0.0
12.33000, 0.0
12.40000, 0.0
12.47000, 0.0
12.54000, 0.0
12.61000, 0.0
12.68000, 0.0
12.75000, 0.0
12.82000, 0.0
12.89000, 0.0
12.96000, 0.0
13.03000, 0.0
13.10000, 0.0
13.17000, 0.0
13.24000, 0.0
13.31000, 0.0
13.38000, 0.0
13.45000, 0.0
13.52000, 0.0
13.59000, 0.0
13.66000, 0.0
13.73000, 0.0
13.80000, 0.0
13.87000, 0.0
13.94000, 0.0
14.01000, 0.0
14.08000, 0.0
14.15000, 0.0
14.22000, 0.0
14.29000, 0.0
14.36000, 0.0
14.43000, 0.0
14.50000, 0.0
14.57000, 0.0
14.64000, 0.0
14.71000, 0.0
14.78000, 0.0
14.85000, 0.0
14.92000, 0.0
14.99000, 0.0
15.06000, 0.0
15.13000, 0.0
15.20000, 0.0
15.27000, 0.0
15.34000, 0.0
15.41000, 0.0
15.48000, 0.0
15.55000, 0.0
15.62000, 0.0
15.69000, 0.0
15.76000, 0.0
15.83000, 0.0
15.90000, 0.0
15.97000, 0.0
16.04000, 0.0
16.11000, 0.0
16.18000, 0.0
16.25000, 0.0
16.32000, 0.0
16.39000, 0.0
16.46000, 0.0
16.53000, 0.0
16.60000, 0.0
16.67000, 0.0
16.74000, 0.0
16.81000, 0.0
16.88000, 0.0
16.95000, 0.0
17.02000, 0.0
17.09000, 0.0
17.16000, 0.0
17.23000, 0.0
17.30000, 0.0
17.37000, 0.0
17.44000, 0.0
17.51000, 0.0
17.58000, 0.0
17.65000, 0.0
17.72000, 0.0
17.79000, 0.0
17.86000, 0.0
17.93000, 0.0
18.00000, 0.0
18.07000, 0.0
18.14000, 0.0
18.21000, 0.0
18.28000, 0.0
18.35000, 0.0
18.42000, 0.0
18.49000, 0.0
18.56000, 0.0
18.63000, 0.0
18.70000, 0.0
18.77000, 0.0
18.84000, 0.0
18.91000, 0.0
18.98000, 0.0
19.05000, 0.0
19.12000, 0.0
19.19000, 0.0
19.26000, 0.0
19.33000, 0.0
19.40000, 0.0
19.47000, 0.0
19.54000, 0.0
19.61000, 0.0
19.68000, 0.0
19.75000, 0.0
19.82000, 0.0
19.89000, 0.0
19.96000, 0.0
20.03000, 0.0
20.10000, 0.0
20.17000, 0.0
20.24000, 0.0
20.27000, 0.0
#ENDOFDATA   :