File: data/exports/GaSb_30kV_400pA_processTime1.emsa
#FORMAT      : EMSA/MAS Spectral Data File
#VERSION     : 1.0
#TITLE       : GaSb_30kV_400pA_processTime1
#DATE        : 08-MAR-2023
#TIME        : 15:10
#OWNER       :
#NPOINTS     : 2048.0
#NCOLUMNS    : 1.0
#XUNITS      : keV
#YUNITS      : counts
#DATATYPE    : XY
#XPERCHAN    : 0.01
#OFFSET      : -0.2
#SIGNALTYPE  : EDS
#CHOFFSET    : 20.0
#LIVETIME    : 120.0
#REALTIME    : 165.452
#BEAMKV      : 30.0
#MAGCAM      : 4894.0
#XTILTSTGE   : 0.0
#AZIMANGLE   : 0.0
#ELEVANGLE   : 35.0
#XPOSITION mm: -8.1703
#YPOSITION mm: 1.2743
#ZPOSITION mm: 10.0002
##OXINSTPT   : 1
##OXINSTSTROB: 96.85
##OXINSTNDET : 1
##OXINSTELEMS: 25,26,27,28,29,13,6,8
##OXINSTLABEL: 25, 5.899, Mn
##OXINSTLABEL: 25, 6.490, Mn
##OXINSTLABEL: 25, 0.636, Mn
##OXINSTLABEL: 25, 0.556, Mn
##OXINSTLABEL: 26, 6.404, Fe
##OXINSTLABEL: 26, 7.058, Fe
##OXINSTLABEL: 26, 0.703, Fe
##OXINSTLABEL: 26, 0.615, Fe
##OXINSTLABEL: 27, 6.930, Co
##OXINSTLABEL: 27, 7.650, Co
##OXINSTLABEL: 27, 0.776, Co
##OXINSTLABEL: 27, 0.694, Co
##OXINSTLABEL: 27, 0.678, Co
##OXINSTLABEL: 28, 7.478, Ni
##OXINSTLABEL: 28, 8.265, Ni
##OXINSTLABEL: 28, 0.851, Ni
##OXINSTLABEL: 28, 0.762, Ni
##OXINSTLABEL: 28, 0.743, Ni
##OXINSTLABEL: 29, 8.048, Cu
##OXINSTLABEL: 29, 8.905, Cu
##OXINSTLABEL: 29, 0.930, Cu
##OXINSTLABEL: 29, 0.832, Cu
##OXINSTLABEL: 29, 0.811, Cu
##OXINSTLABEL: 13, 1.487, Al
##OXINSTLABEL: 6, 0.277, C
##OXINSTLABEL: 8, 0.525, O
#SPECTRUM    : Spectral Data Starts Here
-0.20000, 0.0
-0.13000, 0.0
-0.06000, 20.0
0.01000, 513.0
0.08000, 1097.0
0.15000, 1488.0
0.22000, 5202.0
0.29000, 8375.0
0.36000, 6670.0
0.43000, 11992.0
0.50000, 9941.0
0.57000, 5944.0
0.64000, 3928.0
0.71000, 5015.0
0.78000, 5779.0
0.85000, 5756.0
0.92000, 8161.0
0.99000, 14187.0
1.06000, 54914.0
1.13000, 74085.0
1.20000, 18983.0
1.27000, 6070.0
1.34000, 5704.0
1.41000, 5992.0
1.48000, 6632.0
1.55000, 6887.0
1.62000, 7325.0
1.69000, 9265.0
1.76000, 10968.0
1.83000, 11229.0
1.90000, 10374.0
1.97000, 9120.0
2.04000, 9723.0
2.11000, 10695.0
2.18000, 10697.0
2.25000, 10439.0
2.32000, 10791.0
2.39000, 10917.0
2.46000, 10792.0
2.53000, 10993.0
2.60000, 11296.0
2.67000, 11445.0
2.74000, 11654.0
2.81000, 11908.0
2.88000, 11787.0
2.95000, 12024.0
3.02000, 12112.0
3.09000, 13589.0
3.16000, 19033.0
3.23000, 19082.0
3.30000, 14355.0
3.37000, 14419.0
3.44000, 20330.0
3.51000, 70562.0
3.58000, 221773.0
3.65000, 200498.0
3.72000, 62805.0
3.79000, 83398.0
3.86000, 139147.0
3.93000, 90674.0
4.00000, 41877.0
4.07000, 42680.0
4.14000, 40326.0
4.21000, 18397.0
4.28000, 15102.0
4.35000, 19936.0
4.42000, 14397.0
4.49000, 9954.0
4.56000, 12624.0
4.63000, 13264.0
4.70000, 10740.0
4.77000, 8617.0
4.84000, 7628.0
4.91000, 7624.0
4.98000, 8061.0
5.05000, 7634.0
5.12000, 7450.0
5.19000, 7510.0
5.26000, 7419.0
5.33000, 7503.0
5.40000, 7371.0
5.47000, 7444.0
5.54000, 7378.0
5.61000, 7413.0
5.68000, 7444.0
5.75000, 7371.0
5.82000, 7468.0
5.89000, 7317.0
5.96000, 7326.0
6.03000, 7349.0
6.10000, 7289.0
6.17000, 7279.0
6.24000, 7267.0
6.31000, 7335.0
6.38000, 7332.0
6.45000, 7286.0
6.52000, 7136.0
6.59000, 7270.0
6.66000, 7233.0
6.73000, 7229.0
6.80000, 7345.0
6.87000, 7301.0
6.94000, 7379.0
7.01000, 7520.0
7.08000, 7831.0
7.15000, 8905.0
7.22000, 9743.0
7.29000, 8894.0
7.36000, 8549.0
7.43000, 9460.0
7.50000, 9749.0
7.57000, 8458.0
7.64000, 8033.0
7.71000, 8141.0
7.78000, 7719.0
7.85000, 7182.0
7.92000, 6951.0
7.99000, 6989.0
8.06000, 6726.0
8.13000, 6505.0
8.20000, 6343.0
8.27000, 6170.0
8.34000, 5959.0
8.41000, 6093.0
8.48000, 6038.0
8.55000, 5956.0
8.62000, 5836.0
8.69000, 5790.0
8.76000, 5688.0
8.83000, 5734.0
8.90000, 5762.0
8.97000, 5953.0
9.04000, 9156.0
9.11000, 28498.0
9.18000, 76708.0
9.25000, 101625.0
9.32000, 61633.0
9.39000, 19834.0
9.46000, 7283.0
9.53000, 5630.0
9.60000, 5389.0
9.67000, 5315.0
9.74000, 5308.0
9.81000, 5221.0
9.88000, 5379.0
9.95000, 5292.0
10.02000, 5494.0
10.09000, 6668.0
10.16000, 11316.0
10.23000, 17619.0
10.30000, 17176.0
10.37000, 10656.0
10.44000, 6071.0
10.51000, 4729.0
10.58000, 4407.0
10.65000, 4356.0
10.72000, 4329.0
10.79000, 4317.0
10.86000, 4344.0
10.93000, 4348.0
11.00000, 4324.0
11.07000, 4256.0
11.14000, 4131.0
11.21000, 4171.0
11.28000, 4216.0
11.35000, 4252.0
11.42000, 4304.0
11.49000, 4199.0
11.56000, 4096.0
11.63000, 4002.0
11.70000, 4001.0
11.77000, 3918.0
11.84000, 4012.0
11.91000, 3918.0
11.98000, 3884.0
12.05000, 3859.0
12.12000, 3798.0
12.19000, 3850.0
12.26000, 3790.0
12.33000, 3872.0
12.40000, 3919.0
12.47000, 3850.0
12.54000, 3844.0
12.61000, 3894.0
12.68000, 4145.0
12.75000, 4712.0
12.82000, 5562.0
12.89000, 5379.0
12.96000, 4684.0
13.03000, 4461.0
13.10000, 4516.0
13.17000, 4249.0
13.24000, 3779.0
13.31000, 3568.0
13.38000, 3362.0
13.45000, 3270.0
13.52000, 3149.0
13.59000, 3074.0
13.66000, 2993.0
13.73000, 3062.0
13.80000, 3072.0
13.87000, 3139.0
13.94000, 3025.0
14.01000, 2962.0
14.08000, 2936.0
14.15000, 2840.0
14.22000, 2698.0
14.29000, 2601.0
14.36000, 2564.0
14.43000, 2551.0
14.50000, 2579.0
14.57000, 2455.0
14.64000, 2482.0
14.71000, 2332.0
14.78000, 2259.0
14.85000, 2318.0
14.92000, 2300.0
14.99000, 2269.0
15.06000, 2273.0
15.13000, 2167.0
15.20000, 2108.0
15.27000, 2122.0
15.34000, 2119.0
15.41000, 2077.0
15.48000, 2065.0
15.55000, 2019.0
15.62000, 2013.0
15.69000, 2003.0
15.76000, 1938.0
15.83000, 1962.0
15.90000, 1883.0
15.97000, 1881.0
16.04000, 1859.0
16.11000, 1841.0
16.18000, 1827.0
16.25000, 1824.0
16.32000, 1792.0
16.39000, 1750.0
16.46000, 1767.0
16.53000, 1739.0
16.60000, 1711.0
16.67000, 1660.0
16.74000, 1693.0
16.81000, 1692.0
16.88000, 1638.0
16.95000, 1611.0
17.02000, 1580.0
17.09000, 1552.0
17.16000, 1516.0
17.23000, 1486.0
17.30000, 1458.0
17.37000, 1476.0
17.44000, 1432.0
17.51000, 1430.0
17.58000, 1405.0
17.65000, 1347.0
17.72000, 1374.0
17.79000, 1311.0
17.86000, 1365.0
17.93000, 1268.0
18.00000, 1292.0
18.07000, 1309.0
18.14000, 1244.0
18.21000, 1232.0
18.28000, 1278.0
18.35000, 1344.0
18.42000, 1520.0
18.49000, 1545.0
18.56000, 1495.0
18.63000, 1248.0
18.70000, 1146.0
18.77000, 1066.0
18.84000, 1075.0
18.91000, 1036.0
18.98000, 1024.0
19.05000, 985.0
19.12000, 978.0
19.19000, 1006.0
19.26000, 983.0
19.33000, 998.0
19.40000, 1039.0
19.47000, 1032.0
19.54000, 1039.0
19.61000, 942.0
19.68000, 886.0
19.75000, 912.0
19.82000, 837.0
19.89000, 874.0
19.96000, 823.0
20.03000, 783.0
20.10000, 817.0
20.17000, 768.0
20.24000, 765.0
20.27000, 767.0
#ENDOFDATA   :