File: data/exports/GaSb_30kV_50pA.emsa
#FORMAT      : EMSA/MAS Spectral Data File
#VERSION     : 1.0
#TITLE       : GaSb_30kV_50pA
#DATE        : 08-MAR-2023
#TIME        : 14:39
#OWNER       :
#NPOINTS     : 2048.0
#NCOLUMNS    : 1.0
#XUNITS      : keV
#YUNITS      : counts
#DATATYPE    : XY
#XPERCHAN    : 0.01
#OFFSET      : -0.2
#SIGNALTYPE  : EDS
#CHOFFSET    : 20.0
#LIVETIME    : 120.0
#REALTIME    : 212.822
#BEAMKV      : 30.0
#MAGCAM      : 4894.0
#XTILTSTGE   : 0.0
#AZIMANGLE   : 0.0
#ELEVANGLE   : 35.0
#XPOSITION mm: -8.1703
#YPOSITION mm: 1.2743
#ZPOSITION mm: 10.0002
##OXINSTPT   : 6
##OXINSTSTROB: 32.15
##OXINSTNDET : 1
##OXINSTELEMS: 6,8,14,31,51
##OXINSTLABEL: 6, 0.277, C
##OXINSTLABEL: 8, 0.525, O
##OXINSTLABEL: 14, 1.740, Si
##OXINSTLABEL: 31, 9.252, Ga
##OXINSTLABEL: 31, 10.264, Ga
##OXINSTLABEL: 31, 1.098, Ga
##OXINSTLABEL: 31, 0.984, Ga
##OXINSTLABEL: 31, 0.957, Ga
##OXINSTLABEL: 51, 3.605, Sb
##OXINSTLABEL: 51, 3.844, Sb
##OXINSTLABEL: 51, 4.101, Sb
##OXINSTLABEL: 51, 3.437, Sb
##OXINSTLABEL: 51, 4.348, Sb
##OXINSTLABEL: 51, 4.600, Sb
##OXINSTLABEL: 51, 3.189, Sb
##OXINSTLABEL: 51, 0.429, Sb
#SPECTRUM    : Spectral Data Starts Here
-0.20000, 0.0
-0.13000, 0.0
-0.06000, 18.0
0.01000, 10145.0
0.08000, 119.0
0.15000, 249.0
0.22000, 449.0
0.29000, 1081.0
0.36000, 363.0
0.43000, 1652.0
0.50000, 934.0
0.57000, 390.0
0.64000, 347.0
0.71000, 509.0
0.78000, 556.0
0.85000, 549.0
0.92000, 713.0
0.99000, 1088.0
1.06000, 4020.0
1.13000, 9592.0
1.20000, 767.0
1.27000, 511.0
1.34000, 539.0
1.41000, 559.0
1.48000, 678.0
1.55000, 672.0
1.62000, 712.0
1.69000, 917.0
1.76000, 1153.0
1.83000, 1056.0
1.90000, 1032.0
1.97000, 875.0
2.04000, 949.0
2.11000, 1117.0
2.18000, 1041.0
2.25000, 1043.0
2.32000, 1046.0
2.39000, 1106.0
2.46000, 1118.0
2.53000, 1110.0
2.60000, 1146.0
2.67000, 1180.0
2.74000, 1153.0
2.81000, 1161.0
2.88000, 1218.0
2.95000, 1201.0
3.02000, 1212.0
3.09000, 1247.0
3.16000, 2005.0
3.23000, 2019.0
3.30000, 1272.0
3.37000, 1387.0
3.44000, 1820.0
3.51000, 4055.0
3.58000, 27028.0
3.65000, 22365.0
3.72000, 2821.0
3.79000, 7308.0
3.86000, 17425.0
3.93000, 8483.0
4.00000, 3270.0
4.07000, 4531.0
4.14000, 4510.0
4.21000, 1308.0
4.28000, 1301.0
4.35000, 2333.0
4.42000, 1309.0
4.49000, 801.0
4.56000, 1296.0
4.63000, 1304.0
4.70000, 835.0
4.77000, 700.0
4.84000, 674.0
4.91000, 696.0
4.98000, 653.0
5.05000, 636.0
5.12000, 664.0
5.19000, 688.0
5.26000, 688.0
5.33000, 688.0
5.40000, 682.0
5.47000, 687.0
5.54000, 674.0
5.61000, 641.0
5.68000, 632.0
5.75000, 693.0
5.82000, 682.0
5.89000, 674.0
5.96000, 647.0
6.03000, 675.0
6.10000, 669.0
6.17000, 642.0
6.24000, 691.0
6.31000, 653.0
6.38000, 686.0
6.45000, 650.0
6.52000, 629.0
6.59000, 645.0
6.66000, 634.0
6.73000, 643.0
6.80000, 671.0
6.87000, 607.0
6.94000, 588.0
7.01000, 624.0
7.08000, 612.0
7.15000, 624.0
7.22000, 613.0
7.29000, 646.0
7.36000, 630.0
7.43000, 645.0
7.50000, 676.0
7.57000, 567.0
7.64000, 589.0
7.71000, 583.0
7.78000, 612.0
7.85000, 605.0
7.92000, 537.0
7.99000, 565.0
8.06000, 568.0
8.13000, 574.0
8.20000, 543.0
8.27000, 551.0
8.34000, 529.0
8.41000, 539.0
8.48000, 530.0
8.55000, 542.0
8.62000, 525.0
8.69000, 525.0
8.76000, 509.0
8.83000, 522.0
8.90000, 536.0
8.97000, 542.0
9.04000, 656.0
9.11000, 2273.0
9.18000, 8166.0
9.25000, 11724.0
9.32000, 6021.0
9.39000, 1338.0
9.46000, 518.0
9.53000, 462.0
9.60000, 483.0
9.67000, 446.0
9.74000, 473.0
9.81000, 447.0
9.88000, 440.0
9.95000, 462.0
10.02000, 467.0
10.09000, 553.0
10.16000, 1060.0
10.23000, 1948.0
10.30000, 1712.0
10.37000, 826.0
10.44000, 475.0
10.51000, 388.0
10.58000, 395.0
10.65000, 375.0
10.72000, 362.0
10.79000, 369.0
10.86000, 365.0
10.93000, 333.0
11.00000, 353.0
11.07000, 362.0
11.14000, 360.0
11.21000, 354.0
11.28000, 322.0
11.35000, 339.0
11.42000, 341.0
11.49000, 340.0
11.56000, 318.0
11.63000, 321.0
11.70000, 310.0
11.77000, 309.0
11.84000, 313.0
11.91000, 296.0
11.98000, 301.0
12.05000, 313.0
12.12000, 287.0
12.19000, 310.0
12.26000, 299.0
12.33000, 296.0
12.40000, 300.0
12.47000, 278.0
12.54000, 259.0
12.61000, 286.0
12.68000, 287.0
12.75000, 291.0
12.82000, 278.0
12.89000, 303.0
12.96000, 289.0
13.03000, 272.0
13.10000, 267.0
13.17000, 253.0
13.24000, 248.0
13.31000, 251.0
13.38000, 255.0
13.45000, 253.0
13.52000, 256.0
13.59000, 215.0
13.66000, 220.0
13.73000, 207.0
13.80000, 224.0
13.87000, 202.0
13.94000, 240.0
14.01000, 210.0
14.08000, 221.0
14.15000, 199.0
14.22000, 186.0
14.29000, 197.0
14.36000, 189.0
14.43000, 187.0
14.50000, 178.0
14.57000, 186.0
14.64000, 185.0
14.71000, 172.0
14.78000, 160.0
14.85000, 173.0
14.92000, 183.0
14.99000, 157.0
15.06000, 165.0
15.13000, 172.0
15.20000, 167.0
15.27000, 166.0
15.34000, 147.0
15.41000, 158.0
15.48000, 144.0
15.55000, 163.0
15.62000, 144.0
15.69000, 139.0
15.76000, 161.0
15.83000, 135.0
15.90000, 139.0
15.97000, 133.0
16.04000, 132.0
16.11000, 142.0
16.18000, 136.0
16.25000, 127.0
16.32000, 134.0
16.39000, 133.0
16.46000, 124.0
16.53000, 134.0
16.60000, 126.0
16.67000, 130.0
16.74000, 107.0
16.81000, 109.0
16.88000, 116.0
16.95000, 109.0
17.02000, 123.0
17.09000, 93.0
17.16000, 105.0
17.23000, 93.0
17.30000, 121.0
17.37000, 106.0
17.44000, 101.0
17.51000, 94.0
17.58000, 100.0
17.65000, 92.0
17.72000, 94.0
17.79000, 87.0
17.86000, 93.0
17.93000, 88.0
18.00000, 98.0
18.07000, 95.0
18.14000, 87.0
18.21000, 84.0
18.28000, 83.0
18.35000, 86.0
18.42000, 91.0
18.49000, 89.0
18.56000, 80.0
18.63000, 76.0
18.70000, 74.0
18.77000, 72.0
18.84000, 79.0
18.91000, 71.0
18.98000, 71.0
19.05000, 55.0
19.12000, 66.0
19.19000, 57.0
19.26000, 63.0
19.33000, 69.0
19.40000, 59.0
19.47000, 62.0
19.54000, 56.0
19.61000, 64.0
19.68000, 55.0
19.75000, 53.0
19.82000, 47.0
19.89000, 52.0
19.96000, 58.0
20.03000, 56.0
20.10000, 49.0
20.17000, 46.0
20.24000, 49.0
20.27000, 49.0
#ENDOFDATA   :