File: data/exports/GaSb_30kV_50pA_processTime1.emsa
#FORMAT      : EMSA/MAS Spectral Data File
#VERSION     : 1.0
#TITLE       : GaSb_30kV_50pA_processTime1
#DATE        : 08-MAR-2023
#TIME        : 15:06
#OWNER       :
#NPOINTS     : 2048.0
#NCOLUMNS    : 1.0
#XUNITS      : keV
#YUNITS      : counts
#DATATYPE    : XY
#XPERCHAN    : 0.01
#OFFSET      : -0.2
#SIGNALTYPE  : EDS
#CHOFFSET    : 20.0
#LIVETIME    : 120.0
#REALTIME    : 125.45
#BEAMKV      : 30.0
#MAGCAM      : 4894.0
#XTILTSTGE   : 0.0
#AZIMANGLE   : 0.0
#ELEVANGLE   : 35.0
#XPOSITION mm: -8.1703
#YPOSITION mm: 1.2743
#ZPOSITION mm: 10.0002
##OXINSTPT   : 1
##OXINSTSTROB: 96.59
##OXINSTNDET : 1
##OXINSTELEMS: 25,26,27,28,29,13,6,8
##OXINSTLABEL: 25, 5.899, Mn
##OXINSTLABEL: 25, 6.490, Mn
##OXINSTLABEL: 25, 0.636, Mn
##OXINSTLABEL: 25, 0.556, Mn
##OXINSTLABEL: 26, 6.404, Fe
##OXINSTLABEL: 26, 7.058, Fe
##OXINSTLABEL: 26, 0.703, Fe
##OXINSTLABEL: 26, 0.615, Fe
##OXINSTLABEL: 27, 6.930, Co
##OXINSTLABEL: 27, 7.650, Co
##OXINSTLABEL: 27, 0.776, Co
##OXINSTLABEL: 27, 0.694, Co
##OXINSTLABEL: 27, 0.678, Co
##OXINSTLABEL: 28, 7.478, Ni
##OXINSTLABEL: 28, 8.265, Ni
##OXINSTLABEL: 28, 0.851, Ni
##OXINSTLABEL: 28, 0.762, Ni
##OXINSTLABEL: 28, 0.743, Ni
##OXINSTLABEL: 29, 8.048, Cu
##OXINSTLABEL: 29, 8.905, Cu
##OXINSTLABEL: 29, 0.930, Cu
##OXINSTLABEL: 29, 0.832, Cu
##OXINSTLABEL: 29, 0.811, Cu
##OXINSTLABEL: 13, 1.487, Al
##OXINSTLABEL: 6, 0.277, C
##OXINSTLABEL: 8, 0.525, O
#SPECTRUM    : Spectral Data Starts Here
-0.20000, 0.0
-0.13000, 0.0
-0.06000, 46.0
0.01000, 1928.0
0.08000, 3406.0
0.15000, 480.0
0.22000, 627.0
0.29000, 980.0
0.36000, 700.0
0.43000, 1189.0
0.50000, 956.0
0.57000, 542.0
0.64000, 391.0
0.71000, 466.0
0.78000, 560.0
0.85000, 560.0
0.92000, 782.0
0.99000, 1381.0
1.06000, 5378.0
1.13000, 7346.0
1.20000, 1835.0
1.27000, 606.0
1.34000, 539.0
1.41000, 575.0
1.48000, 642.0
1.55000, 675.0
1.62000, 714.0
1.69000, 908.0
1.76000, 1050.0
1.83000, 1087.0
1.90000, 1020.0
1.97000, 873.0
2.04000, 946.0
2.11000, 1059.0
2.18000, 1035.0
2.25000, 1042.0
2.32000, 1073.0
2.39000, 1073.0
2.46000, 1074.0
2.53000, 1129.0
2.60000, 1141.0
2.67000, 1108.0
2.74000, 1149.0
2.81000, 1166.0
2.88000, 1224.0
2.95000, 1217.0
3.02000, 1202.0
3.09000, 1359.0
3.16000, 1925.0
3.23000, 1906.0
3.30000, 1375.0
3.37000, 1496.0
3.44000, 2031.0
3.51000, 7155.0
3.58000, 22381.0
3.65000, 20455.0
3.72000, 6305.0
3.79000, 8551.0
3.86000, 14009.0
3.93000, 9124.0
4.00000, 4245.0
4.07000, 4309.0
4.14000, 4020.0
4.21000, 1790.0
4.28000, 1495.0
4.35000, 1994.0
4.42000, 1372.0
4.49000, 947.0
4.56000, 1200.0
4.63000, 1187.0
4.70000, 907.0
4.77000, 732.0
4.84000, 665.0
4.91000, 723.0
4.98000, 664.0
5.05000, 674.0
5.12000, 660.0
5.19000, 673.0
5.26000, 677.0
5.33000, 705.0
5.40000, 669.0
5.47000, 717.0
5.54000, 671.0
5.61000, 675.0
5.68000, 665.0
5.75000, 680.0
5.82000, 671.0
5.89000, 699.0
5.96000, 634.0
6.03000, 639.0
6.10000, 693.0
6.17000, 637.0
6.24000, 682.0
6.31000, 654.0
6.38000, 664.0
6.45000, 637.0
6.52000, 655.0
6.59000, 654.0
6.66000, 628.0
6.73000, 643.0
6.80000, 621.0
6.87000, 595.0
6.94000, 629.0
7.01000, 599.0
7.08000, 614.0
7.15000, 597.0
7.22000, 656.0
7.29000, 615.0
7.36000, 614.0
7.43000, 617.0
7.50000, 634.0
7.57000, 609.0
7.64000, 616.0
7.71000, 595.0
7.78000, 547.0
7.85000, 580.0
7.92000, 559.0
7.99000, 574.0
8.06000, 582.0
8.13000, 564.0
8.20000, 559.0
8.27000, 515.0
8.34000, 558.0
8.41000, 553.0
8.48000, 555.0
8.55000, 515.0
8.62000, 555.0
8.69000, 488.0
8.76000, 493.0
8.83000, 531.0
8.90000, 518.0
8.97000, 539.0
9.04000, 891.0
9.11000, 2828.0
9.18000, 7713.0
9.25000, 10266.0
9.32000, 6333.0
9.39000, 2038.0
9.46000, 654.0
9.53000, 488.0
9.60000, 487.0
9.67000, 468.0
9.74000, 483.0
9.81000, 455.0
9.88000, 503.0
9.95000, 465.0
10.02000, 505.0
10.09000, 620.0
10.16000, 1110.0
10.23000, 1683.0
10.30000, 1701.0
10.37000, 948.0
10.44000, 512.0
10.51000, 398.0
10.58000, 354.0
10.65000, 358.0
10.72000, 363.0
10.79000, 342.0
10.86000, 353.0
10.93000, 365.0
11.00000, 358.0
11.07000, 342.0
11.14000, 343.0
11.21000, 352.0
11.28000, 353.0
11.35000, 339.0
11.42000, 326.0
11.49000, 335.0
11.56000, 321.0
11.63000, 303.0
11.70000, 306.0
11.77000, 327.0
11.84000, 317.0
11.91000, 328.0
11.98000, 297.0
12.05000, 288.0
12.12000, 292.0
12.19000, 280.0
12.26000, 304.0
12.33000, 287.0
12.40000, 297.0
12.47000, 281.0
12.54000, 270.0
12.61000, 288.0
12.68000, 271.0
12.75000, 270.0
12.82000, 294.0
12.89000, 290.0
12.96000, 287.0
13.03000, 282.0
13.10000, 259.0
13.17000, 258.0
13.24000, 250.0
13.31000, 243.0
13.38000, 251.0
13.45000, 237.0
13.52000, 220.0
13.59000, 225.0
13.66000, 244.0
13.73000, 229.0
13.80000, 241.0
13.87000, 235.0
13.94000, 224.0
14.01000, 200.0
14.08000, 203.0
14.15000, 212.0
14.22000, 167.0
14.29000, 189.0
14.36000, 199.0
14.43000, 173.0
14.50000, 184.0
14.57000, 175.0
14.64000, 162.0
14.71000, 178.0
14.78000, 172.0
14.85000, 177.0
14.92000, 184.0
14.99000, 161.0
15.06000, 172.0
15.13000, 153.0
15.20000, 179.0
15.27000, 164.0
15.34000, 157.0
15.41000, 171.0
15.48000, 154.0
15.55000, 151.0
15.62000, 137.0
15.69000, 141.0
15.76000, 150.0
15.83000, 152.0
15.90000, 155.0
15.97000, 134.0
16.04000, 140.0
16.11000, 129.0
16.18000, 141.0
16.25000, 126.0
16.32000, 126.0
16.39000, 117.0
16.46000, 125.0
16.53000, 112.0
16.60000, 132.0
16.67000, 118.0
16.74000, 127.0
16.81000, 139.0
16.88000, 112.0
16.95000, 111.0
17.02000, 109.0
17.09000, 101.0
17.16000, 119.0
17.23000, 100.0
17.30000, 98.0
17.37000, 106.0
17.44000, 96.0
17.51000, 107.0
17.58000, 96.0
17.65000, 89.0
17.72000, 86.0
17.79000, 104.0
17.86000, 76.0
17.93000, 95.0
18.00000, 87.0
18.07000, 81.0
18.14000, 87.0
18.21000, 85.0
18.28000, 84.0
18.35000, 89.0
18.42000, 82.0
18.49000, 74.0
18.56000, 89.0
18.63000, 71.0
18.70000, 81.0
18.77000, 74.0
18.84000, 82.0
18.91000, 65.0
18.98000, 76.0
19.05000, 71.0
19.12000, 61.0
19.19000, 66.0
19.26000, 62.0
19.33000, 65.0
19.40000, 52.0
19.47000, 62.0
19.54000, 60.0
19.61000, 54.0
19.68000, 70.0
19.75000, 50.0
19.82000, 58.0
19.89000, 50.0
19.96000, 48.0
20.03000, 48.0
20.10000, 53.0
20.17000, 46.0
20.24000, 54.0
20.27000, 43.0
#ENDOFDATA   :